Created as New Dataset,Sample 113 By Administrator Date Wednesday, July 29 2020
cm-1,A
4000.00,0.0732
3998.00,0.0727
3996.00,0.0718
3994.00,0.0708
3992.00,0.0698
3990.00,0.0689
3988.00,0.0683
3986.00,0.0679
3984.00,0.0677
3982.00,0.0676
3980.00,0.0677
3978.00,0.0678
3976.00,0.0678
3974.00,0.0677
3972.00,0.0676
3970.00,0.0673
3968.00,0.0671
3966.00,0.0668
3964.00,0.0667
3962.00,0.0665
3960.00,0.0663
3958.00,0.0661
3956.00,0.0659
3954.00,0.0658
3952.00,0.0658
3950.00,0.0658
3948.00,0.0658
3946.00,0.0659
3944.00,0.0660
3942.00,0.0662
3940.00,0.0664
3938.00,0.0665
3936.00,0.0665
3934.00,0.0665
3932.00,0.0663
3930.00,0.0662
3928.00,0.0661
3926.00,0.0660
3924.00,0.0659
3922.00,0.0657
3920.00,0.0656
3918.00,0.0655
3916.00,0.0653
3914.00,0.0652
3912.00,0.0651
3910.00,0.0650
3908.00,0.0650
3906.00,0.0650
3904.00,0.0651
3902.00,0.0651
3900.00,0.0651
3898.00,0.0650
3896.00,0.0649
3894.00,0.0648
3892.00,0.0648
3890.00,0.0647
3888.00,0.0645
3886.00,0.0644
3884.00,0.0643
3882.00,0.0642
3880.00,0.0642
3878.00,0.0641
3876.00,0.0641
3874.00,0.0640
3872.00,0.0640
3870.00,0.0640
3868.00,0.0639
3866.00,0.0638
3864.00,0.0637
3862.00,0.0637
3860.00,0.0636
3858.00,0.0635
3856.00,0.0635
3854.00,0.0634
3852.00,0.0634
3850.00,0.0635
3848.00,0.0636
3846.00,0.0636
3844.00,0.0637
3842.00,0.0639
3840.00,0.0640
3838.00,0.0641
3836.00,0.0643
3834.00,0.0644
3832.00,0.0645
3830.00,0.0647
3828.00,0.0649
3826.00,0.0651
3824.00,0.0652
3822.00,0.0654
3820.00,0.0655
3818.00,0.0656
3816.00,0.0656
3814.00,0.0657
3812.00,0.0657
3810.00,0.0656
3808.00,0.0656
3806.00,0.0656
3804.00,0.0656
3802.00,0.0655
3800.00,0.0655
3798.00,0.0653
3796.00,0.0651
3794.00,0.0649
3792.00,0.0646
3790.00,0.0642
3788.00,0.0640
3786.00,0.0637
3784.00,0.0635
3782.00,0.0634
3780.00,0.0632
3778.00,0.0632
3776.00,0.0631
3774.00,0.0632
3772.00,0.0633
3770.00,0.0633
3768.00,0.0634
3766.00,0.0635
3764.00,0.0635
3762.00,0.0635
3760.00,0.0633
3758.00,0.0632
3756.00,0.0629
3754.00,0.0627
3752.00,0.0625
3750.00,0.0623
3748.00,0.0621
3746.00,0.0620
3744.00,0.0620
3742.00,0.0620
3740.00,0.0619
3738.00,0.0619
3736.00,0.0619
3734.00,0.0620
3732.00,0.0621
3730.00,0.0623
3728.00,0.0626
3726.00,0.0630
3724.00,0.0634
3722.00,0.0637
3720.00,0.0638
3718.00,0.0637
3716.00,0.0637
3714.00,0.0633
3712.00,0.0628
3710.00,0.0626
3708.00,0.0629
3706.00,0.0634
3704.00,0.0640
3702.00,0.0646
3700.00,0.0649
3698.00,0.0649
3696.00,0.0647
3694.00,0.0644
3692.00,0.0643
3690.00,0.0643
3688.00,0.0645
3686.00,0.0648
3684.00,0.0653
3682.00,0.0658
3680.00,0.0663
3678.00,0.0667
3676.00,0.0669
3674.00,0.0671
3672.00,0.0671
3670.00,0.0671
3668.00,0.0671
3666.00,0.0672
3664.00,0.0675
3662.00,0.0680
3660.00,0.0686
3658.00,0.0694
3656.00,0.0704
3654.00,0.0717
3652.00,0.0729
3650.00,0.0742
3648.00,0.0752
3646.00,0.0754
3644.00,0.0746
3642.00,0.0731
3640.00,0.0712
3638.00,0.0694
3636.00,0.0679
3634.00,0.0669
3632.00,0.0664
3630.00,0.0663
3628.00,0.0667
3626.00,0.0675
3624.00,0.0684
3622.00,0.0693
3620.00,0.0698
3618.00,0.0695
3616.00,0.0688
3614.00,0.0678
3612.00,0.0667
3610.00,0.0656
3608.00,0.0650
3606.00,0.0647
3604.00,0.0646
3602.00,0.0646
3600.00,0.0648
3598.00,0.0650
3596.00,0.0653
3594.00,0.0657
3592.00,0.0659
3590.00,0.0662
3588.00,0.0664
3586.00,0.0666
3584.00,0.0666
3582.00,0.0666
3580.00,0.0666
3578.00,0.0665
3576.00,0.0665
3574.00,0.0664
3572.00,0.0664
3570.00,0.0665
3568.00,0.0665
3566.00,0.0666
3564.00,0.0669
3562.00,0.0671
3560.00,0.0673
3558.00,0.0676
3556.00,0.0678
3554.00,0.0681
3552.00,0.0683
3550.00,0.0686
3548.00,0.0689
3546.00,0.0692
3544.00,0.0695
3542.00,0.0697
3540.00,0.0700
3538.00,0.0703
3536.00,0.0706
3534.00,0.0708
3532.00,0.0710
3530.00,0.0713
3528.00,0.0716
3526.00,0.0719
3524.00,0.0722
3522.00,0.0724
3520.00,0.0727
3518.00,0.0730
3516.00,0.0733
3514.00,0.0735
3512.00,0.0738
3510.00,0.0741
3508.00,0.0744
3506.00,0.0747
3504.00,0.0749
3502.00,0.0752
3500.00,0.0754
3498.00,0.0757
3496.00,0.0760
3494.00,0.0763
3492.00,0.0766
3490.00,0.0770
3488.00,0.0773
3486.00,0.0775
3484.00,0.0778
3482.00,0.0781
3480.00,0.0783
3478.00,0.0785
3476.00,0.0787
3474.00,0.0790
3472.00,0.0792
3470.00,0.0795
3468.00,0.0796
3466.00,0.0797
3464.00,0.0798
3462.00,0.0799
3460.00,0.0800
3458.00,0.0801
3456.00,0.0802
3454.00,0.0803
3452.00,0.0804
3450.00,0.0806
3448.00,0.0808
3446.00,0.0811
3444.00,0.0813
3442.00,0.0814
3440.00,0.0814
3438.00,0.0813
3436.00,0.0810
3434.00,0.0806
3432.00,0.0802
3430.00,0.0799
3428.00,0.0795
3426.00,0.0791
3424.00,0.0788
3422.00,0.0785
3420.00,0.0783
3418.00,0.0781
3416.00,0.0780
3414.00,0.0780
3412.00,0.0779
3410.00,0.0779
3408.00,0.0778
3406.00,0.0778
3404.00,0.0778
3402.00,0.0778
3400.00,0.0777
3398.00,0.0775
3396.00,0.0774
3394.00,0.0774
3392.00,0.0773
3390.00,0.0772
3388.00,0.0771
3386.00,0.0770
3384.00,0.0769
3382.00,0.0768
3380.00,0.0767
3378.00,0.0765
3376.00,0.0763
3374.00,0.0761
3372.00,0.0759
3370.00,0.0757
3368.00,0.0755
3366.00,0.0753
3364.00,0.0751
3362.00,0.0750
3360.00,0.0748
3358.00,0.0747
3356.00,0.0746
3354.00,0.0746
3352.00,0.0746
3350.00,0.0745
3348.00,0.0744
3346.00,0.0744
3344.00,0.0743
3342.00,0.0743
3340.00,0.0742
3338.00,0.0741
3336.00,0.0740
3334.00,0.0739
3332.00,0.0738
3330.00,0.0737
3328.00,0.0737
3326.00,0.0736
3324.00,0.0734
3322.00,0.0733
3320.00,0.0732
3318.00,0.0731
3316.00,0.0730
3314.00,0.0730
3312.00,0.0729
3310.00,0.0729
3308.00,0.0729
3306.00,0.0728
3304.00,0.0727
3302.00,0.0725
3300.00,0.0725
3298.00,0.0725
3296.00,0.0725
3294.00,0.0725
3292.00,0.0724
3290.00,0.0723
3288.00,0.0723
3286.00,0.0723
3284.00,0.0723
3282.00,0.0723
3280.00,0.0723
3278.00,0.0724
3276.00,0.0724
3274.00,0.0725
3272.00,0.0725
3270.00,0.0725
3268.00,0.0724
3266.00,0.0725
3264.00,0.0725
3262.00,0.0725
3260.00,0.0726
3258.00,0.0726
3256.00,0.0726
3254.00,0.0725
3252.00,0.0725
3250.00,0.0725
3248.00,0.0725
3246.00,0.0724
3244.00,0.0724
3242.00,0.0723
3240.00,0.0723
3238.00,0.0723
3236.00,0.0723
3234.00,0.0724
3232.00,0.0724
3230.00,0.0724
3228.00,0.0725
3226.00,0.0726
3224.00,0.0727
3222.00,0.0728
3220.00,0.0729
3218.00,0.0731
3216.00,0.0734
3214.00,0.0737
3212.00,0.0740
3210.00,0.0744
3208.00,0.0749
3206.00,0.0754
3204.00,0.0759
3202.00,0.0763
3200.00,0.0766
3198.00,0.0767
3196.00,0.0766
3194.00,0.0765
3192.00,0.0763
3190.00,0.0763
3188.00,0.0764
3186.00,0.0765
3184.00,0.0767
3182.00,0.0768
3180.00,0.0770
3178.00,0.0772
3176.00,0.0775
3174.00,0.0781
3172.00,0.0792
3170.00,0.0808
3168.00,0.0831
3166.00,0.0858
3164.00,0.0884
3162.00,0.0897
3160.00,0.0894
3158.00,0.0879
3156.00,0.0861
3154.00,0.0846
3152.00,0.0837
3150.00,0.0832
3148.00,0.0831
3146.00,0.0831
3144.00,0.0833
3142.00,0.0836
3140.00,0.0841
3138.00,0.0845
3136.00,0.0852
3134.00,0.0860
3132.00,0.0871
3130.00,0.0884
3128.00,0.0900
3126.00,0.0919
3124.00,0.0945
3122.00,0.0979
3120.00,0.1024
3118.00,0.1085
3116.00,0.1171
3114.00,0.1291
3112.00,0.1462
3110.00,0.1694
3108.00,0.1976
3106.00,0.2262
3104.00,0.2473
3102.00,0.2551
3100.00,0.2514
3098.00,0.2441
3096.00,0.2421
3094.00,0.2522
3092.00,0.2804
3090.00,0.3319
3088.00,0.4096
3086.00,0.5071
3084.00,0.5993
3082.00,0.6449
3080.00,0.6230
3078.00,0.5629
3076.00,0.5071
3074.00,0.4764
3072.00,0.4741
3070.00,0.4998
3068.00,0.5549
3066.00,0.6398
3064.00,0.7465
3062.00,0.8492
3060.00,0.9024
3058.00,0.8712
3056.00,0.7758
3054.00,0.6675
3052.00,0.5764
3050.00,0.5083
3048.00,0.4618
3046.00,0.4370
3044.00,0.4349
3042.00,0.4559
3040.00,0.5006
3038.00,0.5717
3036.00,0.6764
3034.00,0.8243
3032.00,1.0226
3030.00,1.2673
3028.00,1.5231
3026.00,1.6879
3024.00,1.6012
3022.00,1.3131
3020.00,1.0093
3018.00,0.7667
3016.00,0.5927
3014.00,0.4752
3012.00,0.4009
3010.00,0.3607
3008.00,0.3486
3006.00,0.3596
3004.00,0.3841
3002.00,0.4040
3000.00,0.3970
2998.00,0.3572
2996.00,0.3024
2994.00,0.2536
2992.00,0.2191
2990.00,0.1975
2988.00,0.1849
2986.00,0.1786
2984.00,0.1767
2982.00,0.1782
2980.00,0.1822
2978.00,0.1874
2976.00,0.1923
2974.00,0.1965
2972.00,0.2013
2970.00,0.2081
2968.00,0.2180
2966.00,0.2313
2964.00,0.2482
2962.00,0.2689
2960.00,0.2937
2958.00,0.3232
2956.00,0.3582
2954.00,0.3996
2952.00,0.4487
2950.00,0.5068
2948.00,0.5755
2946.00,0.6557
2944.00,0.7481
2942.00,0.8531
2940.00,0.9718
2938.00,1.1049
2936.00,1.2518
2934.00,1.4092
2932.00,1.5706
2930.00,1.7239
2928.00,1.8494
2926.00,1.9355
2924.00,1.9753
2922.00,1.9664
2920.00,1.9135
2918.00,1.8274
2916.00,1.7189
2914.00,1.5985
2912.00,1.4732
2910.00,1.3494
2908.00,1.2309
2906.00,1.1192
2904.00,1.0130
2902.00,0.9123
2900.00,0.8194
2898.00,0.7376
2896.00,0.6691
2894.00,0.6137
2892.00,0.5694
2890.00,0.5332
2888.00,0.5024
2886.00,0.4750
2884.00,0.4497
2882.00,0.4256
2880.00,0.4026
2878.00,0.3810
2876.00,0.3618
2874.00,0.3464
2872.00,0.3362
2870.00,0.3325
2868.00,0.3367
2866.00,0.3501
2864.00,0.3738
2862.00,0.4081
2860.00,0.4519
2858.00,0.5027
2856.00,0.5560
2854.00,0.6051
2852.00,0.6423
2850.00,0.6593
2848.00,0.6487
2846.00,0.6072
2844.00,0.5385
2842.00,0.4540
2840.00,0.3686
2838.00,0.2941
2836.00,0.2362
2834.00,0.1948
2832.00,0.1667
2830.00,0.1484
2828.00,0.1363
2826.00,0.1283
2824.00,0.1227
2822.00,0.1188
2820.00,0.1160
2818.00,0.1140
2816.00,0.1125
2814.00,0.1115
2812.00,0.1106
2810.00,0.1097
2808.00,0.1084
2806.00,0.1068
2804.00,0.1050
2802.00,0.1030
2800.00,0.1010
2798.00,0.0991
2796.00,0.0974
2794.00,0.0959
2792.00,0.0947
2790.00,0.0937
2788.00,0.0930
2786.00,0.0925
2784.00,0.0924
2782.00,0.0923
2780.00,0.0921
2778.00,0.0915
2776.00,0.0904
2774.00,0.0890
2772.00,0.0874
2770.00,0.0859
2768.00,0.0847
2766.00,0.0837
2764.00,0.0829
2762.00,0.0822
2760.00,0.0816
2758.00,0.0812
2756.00,0.0807
2754.00,0.0803
2752.00,0.0800
2750.00,0.0797
2748.00,0.0794
2746.00,0.0793
2744.00,0.0793
2742.00,0.0794
2740.00,0.0797
2738.00,0.0801
2736.00,0.0806
2734.00,0.0812
2732.00,0.0817
2730.00,0.0822
2728.00,0.0825
2726.00,0.0828
2724.00,0.0830
2722.00,0.0832
2720.00,0.0832
2718.00,0.0832
2716.00,0.0831
2714.00,0.0830
2712.00,0.0828
2710.00,0.0826
2708.00,0.0824
2706.00,0.0822
2704.00,0.0821
2702.00,0.0821
2700.00,0.0821
2698.00,0.0822
2696.00,0.0823
2694.00,0.0824
2692.00,0.0825
2690.00,0.0825
2688.00,0.0825
2686.00,0.0824
2684.00,0.0823
2682.00,0.0821
2680.00,0.0819
2678.00,0.0818
2676.00,0.0817
2674.00,0.0817
2672.00,0.0817
2670.00,0.0816
2668.00,0.0814
2666.00,0.0811
2664.00,0.0809
2662.00,0.0808
2660.00,0.0808
2658.00,0.0809
2656.00,0.0811
2654.00,0.0813
2652.00,0.0815
2650.00,0.0816
2648.00,0.0818
2646.00,0.0819
2644.00,0.0820
2642.00,0.0823
2640.00,0.0829
2638.00,0.0839
2636.00,0.0855
2634.00,0.0871
2632.00,0.0881
2630.00,0.0878
2628.00,0.0863
2626.00,0.0842
2624.00,0.0824
2622.00,0.0809
2620.00,0.0798
2618.00,0.0791
2616.00,0.0788
2614.00,0.0789
2612.00,0.0796
2610.00,0.0807
2608.00,0.0822
2606.00,0.0838
2604.00,0.0849
2602.00,0.0851
2600.00,0.0842
2598.00,0.0825
2596.00,0.0806
2594.00,0.0789
2592.00,0.0777
2590.00,0.0771
2588.00,0.0773
2586.00,0.0781
2584.00,0.0794
2582.00,0.0806
2580.00,0.0807
2578.00,0.0798
2576.00,0.0782
2574.00,0.0769
2572.00,0.0760
2570.00,0.0756
2568.00,0.0754
2566.00,0.0754
2564.00,0.0755
2562.00,0.0755
2560.00,0.0756
2558.00,0.0756
2556.00,0.0756
2554.00,0.0758
2552.00,0.0761
2550.00,0.0765
2548.00,0.0768
2546.00,0.0770
2544.00,0.0768
2542.00,0.0764
2540.00,0.0759
2538.00,0.0754
2536.00,0.0751
2534.00,0.0749
2532.00,0.0748
2530.00,0.0749
2528.00,0.0750
2526.00,0.0751
2524.00,0.0753
2522.00,0.0755
2520.00,0.0757
2518.00,0.0758
2516.00,0.0759
2514.00,0.0760
2512.00,0.0761
2510.00,0.0761
2508.00,0.0759
2506.00,0.0756
2504.00,0.0751
2502.00,0.0745
2500.00,0.0740
2498.00,0.0736
2496.00,0.0733
2494.00,0.0731
2492.00,0.0728
2490.00,0.0725
2488.00,0.0721
2486.00,0.0718
2484.00,0.0714
2482.00,0.0710
2480.00,0.0706
2478.00,0.0700
2476.00,0.0695
2474.00,0.0689
2472.00,0.0684
2470.00,0.0678
2468.00,0.0674
2466.00,0.0670
2464.00,0.0667
2462.00,0.0665
2460.00,0.0665
2458.00,0.0665
2456.00,0.0666
2454.00,0.0667
2452.00,0.0667
2450.00,0.0667
2448.00,0.0665
2446.00,0.0664
2444.00,0.0662
2442.00,0.0661
2440.00,0.0660
2438.00,0.0658
2436.00,0.0657
2434.00,0.0654
2432.00,0.0652
2430.00,0.0649
2428.00,0.0645
2426.00,0.0642
2424.00,0.0640
2422.00,0.0638
2420.00,0.0636
2418.00,0.0635
2416.00,0.0635
2414.00,0.0635
2412.00,0.0636
2410.00,0.0637
2408.00,0.0638
2406.00,0.0640
2404.00,0.0641
2402.00,0.0642
2400.00,0.0643
2398.00,0.0644
2396.00,0.0644
2394.00,0.0644
2392.00,0.0645
2390.00,0.0645
2388.00,0.0647
2386.00,0.0649
2384.00,0.0651
2382.00,0.0654
2380.00,0.0657
2378.00,0.0660
2376.00,0.0664
2374.00,0.0669
2372.00,0.0673
2370.00,0.0676
2368.00,0.0680
2366.00,0.0616
2364.00,0.0621
2362.00,0.0626
2360.00,0.0630
2358.00,0.0633
2356.00,0.0637
2354.00,0.0644
2352.00,0.0657
2350.00,0.0673
2348.00,0.0682
2346.00,0.0687
2344.00,0.0701
2342.00,0.0787
2340.00,0.0821
2338.00,0.0845
2336.00,0.0848
2334.00,0.0827
2332.00,0.0782
2330.00,0.0741
2328.00,0.0716
2326.00,0.0697
2324.00,0.0681
2322.00,0.0676
2320.00,0.0683
2318.00,0.0698
2316.00,0.0716
2314.00,0.0729
2312.00,0.0736
2310.00,0.0731
2308.00,0.0712
2306.00,0.0687
2304.00,0.0665
2302.00,0.0649
2300.00,0.0641
2298.00,0.0639
2296.00,0.0640
2294.00,0.0642
2292.00,0.0641
2290.00,0.0638
2288.00,0.0633
2286.00,0.0628
2284.00,0.0623
2282.00,0.0619
2280.00,0.0616
2278.00,0.0615
2276.00,0.0616
2274.00,0.0618
2272.00,0.0621
2270.00,0.0625
2268.00,0.0630
2266.00,0.0635
2264.00,0.0640
2262.00,0.0645
2260.00,0.0650
2258.00,0.0654
2256.00,0.0656
2254.00,0.0657
2252.00,0.0656
2250.00,0.0653
2248.00,0.0648
2246.00,0.0642
2244.00,0.0637
2242.00,0.0632
2240.00,0.0627
2238.00,0.0624
2236.00,0.0621
2234.00,0.0618
2232.00,0.0616
2230.00,0.0613
2228.00,0.0611
2226.00,0.0607
2224.00,0.0604
2222.00,0.0601
2220.00,0.0598
2218.00,0.0596
2216.00,0.0595
2214.00,0.0594
2212.00,0.0593
2210.00,0.0591
2208.00,0.0588
2206.00,0.0584
2204.00,0.0579
2202.00,0.0576
2200.00,0.0573
2198.00,0.0572
2196.00,0.0573
2194.00,0.0574
2192.00,0.0577
2190.00,0.0580
2188.00,0.0584
2186.00,0.0586
2184.00,0.0587
2182.00,0.0586
2180.00,0.0583
2178.00,0.0579
2176.00,0.0576
2174.00,0.0574
2172.00,0.0573
2170.00,0.0573
2168.00,0.0573
2166.00,0.0574
2164.00,0.0575
2162.00,0.0576
2160.00,0.0577
2158.00,0.0578
2156.00,0.0579
2154.00,0.0580
2152.00,0.0580
2150.00,0.0580
2148.00,0.0580
2146.00,0.0580
2144.00,0.0578
2142.00,0.0577
2140.00,0.0575
2138.00,0.0573
2136.00,0.0570
2134.00,0.0567
2132.00,0.0564
2130.00,0.0562
2128.00,0.0559
2126.00,0.0557
2124.00,0.0555
2122.00,0.0553
2120.00,0.0551
2118.00,0.0549
2116.00,0.0547
2114.00,0.0544
2112.00,0.0542
2110.00,0.0539
2108.00,0.0536
2106.00,0.0534
2104.00,0.0531
2102.00,0.0529
2100.00,0.0528
2098.00,0.0526
2096.00,0.0525
2094.00,0.0525
2092.00,0.0525
2090.00,0.0525
2088.00,0.0525
2086.00,0.0526
2084.00,0.0527
2082.00,0.0529
2080.00,0.0532
2078.00,0.0534
2076.00,0.0538
2074.00,0.0541
2072.00,0.0544
2070.00,0.0546
2068.00,0.0550
2066.00,0.0552
2064.00,0.0554
2062.00,0.0555
2060.00,0.0557
2058.00,0.0558
2056.00,0.0560
2054.00,0.0561
2052.00,0.0562
2050.00,0.0562
2048.00,0.0563
2046.00,0.0563
2044.00,0.0564
2042.00,0.0565
2040.00,0.0565
2038.00,0.0565
2036.00,0.0566
2034.00,0.0566
2032.00,0.0566
2030.00,0.0565
2028.00,0.0563
2026.00,0.0561
2024.00,0.0558
2022.00,0.0556
2020.00,0.0555
2018.00,0.0554
2016.00,0.0553
2014.00,0.0554
2012.00,0.0556
2010.00,0.0559
2008.00,0.0560
2006.00,0.0561
2004.00,0.0562
2002.00,0.0563
2000.00,0.0567
1998.00,0.0573
1996.00,0.0584
1994.00,0.0600
1992.00,0.0621
1990.00,0.0644
1988.00,0.0669
1986.00,0.0688
1984.00,0.0698
1982.00,0.0701
1980.00,0.0704
1978.00,0.0709
1976.00,0.0722
1974.00,0.0750
1972.00,0.0795
1970.00,0.0860
1968.00,0.0942
1966.00,0.1032
1964.00,0.1122
1962.00,0.1206
1960.00,0.1277
1958.00,0.1337
1956.00,0.1388
1954.00,0.1441
1952.00,0.1505
1950.00,0.1588
1948.00,0.1685
1946.00,0.1779
1944.00,0.1847
1942.00,0.1858
1940.00,0.1799
1938.00,0.1678
1936.00,0.1518
1934.00,0.1349
1932.00,0.1197
1930.00,0.1074
1928.00,0.0981
1926.00,0.0912
1924.00,0.0859
1922.00,0.0811
1920.00,0.0771
1918.00,0.0738
1916.00,0.0710
1914.00,0.0691
1912.00,0.0680
1910.00,0.0676
1908.00,0.0677
1906.00,0.0684
1904.00,0.0700
1902.00,0.0724
1900.00,0.0758
1898.00,0.0803
1896.00,0.0861
1894.00,0.0929
1892.00,0.1003
1890.00,0.1082
1888.00,0.1158
1886.00,0.1225
1884.00,0.1280
1882.00,0.1325
1880.00,0.1364
1878.00,0.1401
1876.00,0.1439
1874.00,0.1476
1872.00,0.1505
1870.00,0.1517
1868.00,0.1498
1866.00,0.1446
1864.00,0.1363
1862.00,0.1258
1860.00,0.1144
1858.00,0.1036
1856.00,0.0945
1854.00,0.0874
1852.00,0.0821
1850.00,0.0783
1848.00,0.0754
1846.00,0.0733
1844.00,0.0720
1842.00,0.0710
1840.00,0.0707
1838.00,0.0708
1836.00,0.0716
1834.00,0.0728
1832.00,0.0745
1830.00,0.0775
1828.00,0.0817
1826.00,0.0866
1824.00,0.0920
1822.00,0.0975
1820.00,0.1034
1818.00,0.1095
1816.00,0.1156
1814.00,0.1219
1812.00,0.1287
1810.00,0.1360
1808.00,0.1434
1806.00,0.1500
1804.00,0.1550
1802.00,0.1567
1800.00,0.1540
1798.00,0.1476
1796.00,0.1378
1794.00,0.1265
1792.00,0.1144
1790.00,0.1042
1788.00,0.0976
1786.00,0.0936
1784.00,0.0914
1782.00,0.0914
1780.00,0.0933
1778.00,0.0958
1776.00,0.0976
1774.00,0.0982
1772.00,0.0982
1770.00,0.0990
1768.00,0.1002
1766.00,0.1017
1764.00,0.1046
1762.00,0.1092
1760.00,0.1150
1758.00,0.1215
1756.00,0.1289
1754.00,0.1364
1752.00,0.1437
1750.00,0.1499
1748.00,0.1547
1746.00,0.1577
1744.00,0.1581
1742.00,0.1559
1740.00,0.1525
1738.00,0.1479
1736.00,0.1441
1734.00,0.1389
1732.00,0.1330
1730.00,0.1289
1728.00,0.1252
1726.00,0.1220
1724.00,0.1190
1722.00,0.1156
1720.00,0.1129
1718.00,0.1107
1716.00,0.1081
1714.00,0.1063
1712.00,0.1050
1710.00,0.1037
1708.00,0.1021
1706.00,0.1010
1704.00,0.0997
1702.00,0.0982
1700.00,0.0963
1698.00,0.0953
1696.00,0.0948
1694.00,0.0934
1692.00,0.0935
1690.00,0.0945
1688.00,0.0957
1686.00,0.0969
1684.00,0.0995
1682.00,0.1027
1680.00,0.1051
1678.00,0.1064
1676.00,0.1080
1674.00,0.1097
1672.00,0.1108
1670.00,0.1122
1668.00,0.1136
1666.00,0.1135
1664.00,0.1121
1662.00,0.1102
1660.00,0.1077
1658.00,0.1043
1656.00,0.1010
1654.00,0.0978
1652.00,0.0949
1650.00,0.0921
1648.00,0.0906
1646.00,0.0894
1644.00,0.0883
1642.00,0.0873
1640.00,0.0858
1638.00,0.0842
1636.00,0.0838
1634.00,0.0849
1632.00,0.0861
1630.00,0.0869
1628.00,0.0883
1626.00,0.0903
1624.00,0.0930
1622.00,0.0965
1620.00,0.1000
1618.00,0.1052
1616.00,0.1158
1614.00,0.1310
1612.00,0.1548
1610.00,0.1995
1608.00,0.2823
1606.00,0.4167
1604.00,0.5943
1602.00,0.7491
1600.00,0.7440
1598.00,0.5910
1596.00,0.4316
1594.00,0.3219
1592.00,0.2554
1590.00,0.2174
1588.00,0.2087
1586.00,0.2369
1584.00,0.2818
1582.00,0.2808
1580.00,0.2229
1578.00,0.1674
1576.00,0.1315
1574.00,0.1125
1572.00,0.1024
1570.00,0.0950
1568.00,0.0909
1566.00,0.0890
1564.00,0.0880
1562.00,0.0874
1560.00,0.0867
1558.00,0.0905
1556.00,0.0959
1554.00,0.1013
1552.00,0.1071
1550.00,0.1134
1548.00,0.1194
1546.00,0.1247
1544.00,0.1277
1542.00,0.1280
1540.00,0.1271
1538.00,0.1233
1536.00,0.1179
1534.00,0.1111
1532.00,0.1035
1530.00,0.0977
1528.00,0.0933
1526.00,0.0895
1524.00,0.0870
1522.00,0.0872
1520.00,0.0880
1518.00,0.0900
1516.00,0.0939
1514.00,0.0987
1512.00,0.1046
1510.00,0.1116
1508.00,0.1217
1506.00,0.1447
1504.00,0.1778
1502.00,0.2252
1500.00,0.3178
1498.00,0.5105
1496.00,0.8992
1494.00,1.5162
1492.00,1.6221
1490.00,1.0419
1488.00,0.6622
1486.00,0.4480
1484.00,0.3213
1482.00,0.2431
1480.00,0.1985
1478.00,0.1760
1476.00,0.1654
1474.00,0.1608
1472.00,0.1621
1470.00,0.1665
1468.00,0.1743
1466.00,0.1865
1464.00,0.2097
1462.00,0.2444
1460.00,0.3029
1458.00,0.4424
1456.00,0.8198
1454.00,1.4025
1452.00,1.8095
1450.00,1.5063
1448.00,1.1788
1446.00,0.9453
1444.00,0.7722
1442.00,0.6276
1440.00,0.5181
1438.00,0.4274
1436.00,0.3334
1434.00,0.2636
1432.00,0.2165
1430.00,0.1808
1428.00,0.1568
1426.00,0.1427
1424.00,0.1328
1422.00,0.1265
1420.00,0.1223
1418.00,0.1184
1416.00,0.1150
1414.00,0.1129
1412.00,0.1115
1410.00,0.1107
1408.00,0.1104
1406.00,0.1109
1404.00,0.1116
1402.00,0.1131
1400.00,0.1157
1398.00,0.1202
1396.00,0.1267
1394.00,0.1371
1392.00,0.1510
1390.00,0.1685
1388.00,0.1902
1386.00,0.2138
1384.00,0.2339
1382.00,0.2512
1380.00,0.2668
1378.00,0.2828
1376.00,0.2987
1374.00,0.3113
1372.00,0.3160
1370.00,0.3146
1368.00,0.3099
1366.00,0.3050
1364.00,0.3003
1362.00,0.2937
1360.00,0.2847
1358.00,0.2753
1356.00,0.2676
1354.00,0.2632
1352.00,0.2616
1350.00,0.2606
1348.00,0.2577
1346.00,0.2516
1344.00,0.2430
1342.00,0.2343
1340.00,0.2275
1338.00,0.2244
1336.00,0.2276
1334.00,0.2370
1332.00,0.2496
1330.00,0.2598
1328.00,0.2622
1326.00,0.2562
1324.00,0.2466
1322.00,0.2382
1320.00,0.2336
1318.00,0.2334
1316.00,0.2367
1314.00,0.2409
1312.00,0.2422
1310.00,0.2383
1308.00,0.2301
1306.00,0.2201
1304.00,0.2099
1302.00,0.2000
1300.00,0.1909
1298.00,0.1842
1296.00,0.1802
1294.00,0.1780
1292.00,0.1757
1290.00,0.1726
1288.00,0.1692
1286.00,0.1667
1284.00,0.1659
1282.00,0.1657
1280.00,0.1644
1278.00,0.1607
1276.00,0.1551
1274.00,0.1490
1272.00,0.1438
1270.00,0.1398
1268.00,0.1369
1266.00,0.1350
1264.00,0.1337
1262.00,0.1331
1260.00,0.1331
1258.00,0.1338
1256.00,0.1352
1254.00,0.1372
1252.00,0.1393
1250.00,0.1412
1248.00,0.1425
1246.00,0.1431
1244.00,0.1427
1242.00,0.1416
1240.00,0.1399
1238.00,0.1377
1236.00,0.1357
1234.00,0.1343
1232.00,0.1336
1230.00,0.1335
1228.00,0.1335
1226.00,0.1331
1224.00,0.1320
1222.00,0.1305
1220.00,0.1290
1218.00,0.1284
1216.00,0.1289
1214.00,0.1308
1212.00,0.1341
1210.00,0.1389
1208.00,0.1452
1206.00,0.1534
1204.00,0.1634
1202.00,0.1746
1200.00,0.1850
1198.00,0.1924
1196.00,0.1961
1194.00,0.1976
1192.00,0.1988
1190.00,0.2012
1188.00,0.2075
1186.00,0.2223
1184.00,0.2453
1182.00,0.2635
1180.00,0.2573
1178.00,0.2261
1176.00,0.1918
1174.00,0.1698
1172.00,0.1596
1170.00,0.1557
1168.00,0.1549
1166.00,0.1564
1164.00,0.1609
1162.00,0.1708
1160.00,0.1906
1158.00,0.2222
1156.00,0.2542
1154.00,0.2621
1152.00,0.2358
1150.00,0.1961
1148.00,0.1657
1146.00,0.1479
1144.00,0.1364
1142.00,0.1276
1140.00,0.1205
1138.00,0.1151
1136.00,0.1109
1134.00,0.1077
1132.00,0.1050
1130.00,0.1028
1128.00,0.1010
1126.00,0.0999
1124.00,0.0997
1122.00,0.1010
1120.00,0.1043
1118.00,0.1096
1116.00,0.1157
1114.00,0.1204
1112.00,0.1220
1110.00,0.1206
1108.00,0.1179
1106.00,0.1159
1104.00,0.1160
1102.00,0.1184
1100.00,0.1224
1098.00,0.1274
1096.00,0.1330
1094.00,0.1387
1092.00,0.1448
1090.00,0.1518
1088.00,0.1605
1086.00,0.1720
1084.00,0.1867
1082.00,0.2039
1080.00,0.2216
1078.00,0.2396
1076.00,0.2611
1074.00,0.2883
1072.00,0.3150
1070.00,0.3314
1068.00,0.3316
1066.00,0.3157
1064.00,0.2909
1062.00,0.2658
1060.00,0.2448
1058.00,0.2286
1056.00,0.2162
1054.00,0.2062
1052.00,0.1979
1050.00,0.1910
1048.00,0.1852
1046.00,0.1806
1044.00,0.1777
1042.00,0.1776
1040.00,0.1831
1038.00,0.2012
1036.00,0.2447
1034.00,0.3263
1032.00,0.4378
1030.00,0.5334
1028.00,0.5612
1026.00,0.5084
1024.00,0.4232
1022.00,0.3525
1020.00,0.3036
1018.00,0.2685
1016.00,0.2418
1014.00,0.2212
1012.00,0.2054
1010.00,0.1945
1008.00,0.1906
1006.00,0.1962
1004.00,0.2053
1002.00,0.2004
1000.00,0.1777
998.00,0.1552
996.00,0.1442
994.00,0.1412
992.00,0.1424
990.00,0.1465
988.00,0.1535
986.00,0.1637
984.00,0.1759
982.00,0.1864
980.00,0.1919
978.00,0.1908
976.00,0.1850
974.00,0.1799
972.00,0.1810
970.00,0.1902
968.00,0.2045
966.00,0.2174
964.00,0.2219
962.00,0.2148
960.00,0.1997
958.00,0.1843
956.00,0.1742
954.00,0.1695
952.00,0.1687
950.00,0.1707
948.00,0.1749
946.00,0.1801
944.00,0.1837
942.00,0.1831
940.00,0.1770
938.00,0.1668
936.00,0.1550
934.00,0.1435
932.00,0.1340
930.00,0.1273
928.00,0.1236
926.00,0.1228
924.00,0.1244
922.00,0.1284
920.00,0.1354
918.00,0.1477
916.00,0.1687
914.00,0.2018
912.00,0.2468
910.00,0.2967
908.00,0.3357
906.00,0.3445
904.00,0.3166
902.00,0.2648
900.00,0.2094
898.00,0.1649
896.00,0.1359
894.00,0.1192
892.00,0.1098
890.00,0.1040
888.00,0.1002
886.00,0.0977
884.00,0.0962
882.00,0.0956
880.00,0.0959
878.00,0.0967
876.00,0.0980
874.00,0.0995
872.00,0.1012
870.00,0.1028
868.00,0.1044
866.00,0.1058
864.00,0.1072
862.00,0.1085
860.00,0.1097
858.00,0.1111
856.00,0.1130
854.00,0.1162
852.00,0.1221
850.00,0.1322
848.00,0.1466
846.00,0.1623
844.00,0.1750
842.00,0.1806
840.00,0.1763
838.00,0.1619
836.00,0.1409
834.00,0.1194
832.00,0.1023
830.00,0.0908
828.00,0.0834
826.00,0.0783
824.00,0.0746
822.00,0.0720
820.00,0.0703
818.00,0.0697
816.00,0.0700
814.00,0.0711
812.00,0.0731
810.00,0.0757
808.00,0.0790
806.00,0.0829
804.00,0.0878
802.00,0.0944
800.00,0.1031
798.00,0.1140
796.00,0.1274
794.00,0.1435
792.00,0.1625
790.00,0.1844
788.00,0.2087
786.00,0.2350
784.00,0.2641
782.00,0.2987
780.00,0.3433
778.00,0.4033
776.00,0.4827
774.00,0.5824
772.00,0.7031
770.00,0.8444
768.00,0.9987
766.00,1.1487
764.00,1.2884
762.00,1.4224
760.00,1.5471
758.00,1.6287
756.00,1.6368
754.00,1.5769
752.00,1.5016
750.00,1.4338
748.00,1.3520
746.00,1.2047
744.00,0.9980
742.00,0.7942
740.00,0.6317
738.00,0.5085
736.00,0.4094
734.00,0.3235
732.00,0.2534
730.00,0.2041
728.00,0.1737
726.00,0.1566
724.00,0.1492
722.00,0.1502
720.00,0.1602
718.00,0.1813
716.00,0.2176
714.00,0.2784
712.00,0.3850
710.00,0.5780
708.00,0.9149
706.00,1.4588
704.00,2.2880
702.00,3.4417
700.00,4.2398
698.00,4.0336
696.00,2.9723
694.00,1.7502
692.00,1.0666
690.00,0.6812
688.00,0.4811
686.00,0.3820
684.00,0.3274
682.00,0.2892
680.00,0.2586
678.00,0.2333
676.00,0.2129
674.00,0.1962
672.00,0.1829
670.00,0.1718
668.00,0.1576
666.00,0.1444
664.00,0.1313
662.00,0.1194
660.00,0.1106
658.00,0.1043
656.00,0.1007
654.00,0.0994
652.00,0.1000
650.00,0.1019
648.00,0.1045
646.00,0.1077
644.00,0.1114
642.00,0.1160
640.00,0.1218
638.00,0.1290
636.00,0.1375
634.00,0.1459
632.00,0.1530
630.00,0.1587
628.00,0.1630
626.00,0.1655
624.00,0.1677
622.00,0.1714
620.00,0.1698
618.00,0.1591
616.00,0.1478
614.00,0.1388
612.00,0.1309
610.00,0.1241
608.00,0.1188
606.00,0.1151
604.00,0.1131
602.00,0.1130
600.00,0.1145
598.00,0.1170
596.00,0.1206
594.00,0.1251
592.00,0.1303
590.00,0.1362
588.00,0.1429
586.00,0.1512
584.00,0.1618
582.00,0.1755
580.00,0.1933
578.00,0.2148
576.00,0.2398
574.00,0.2665
572.00,0.2932
570.00,0.3191
568.00,0.3436
566.00,0.3667
564.00,0.3894
562.00,0.4121
560.00,0.4349
558.00,0.4572
556.00,0.4800
554.00,0.5042
552.00,0.5315
550.00,0.5637
548.00,0.6030
546.00,0.6496
544.00,0.7001
542.00,0.7436
540.00,0.7636
538.00,0.7418
536.00,0.6740
534.00,0.5786
532.00,0.4828
530.00,0.4012
528.00,0.3380
526.00,0.2889
524.00,0.2519
522.00,0.2256
520.00,0.2056
518.00,0.1890
516.00,0.1744
514.00,0.1612
512.00,0.1486
510.00,0.1359
508.00,0.1235
506.00,0.1117
504.00,0.1013
502.00,0.0916
500.00,0.0827
498.00,0.0753
496.00,0.0688
494.00,0.0634
492.00,0.0587
490.00,0.0546
488.00,0.0518
486.00,0.0499
484.00,0.0485
482.00,0.0481
480.00,0.0484
478.00,0.0496
476.00,0.0514
474.00,0.0539
472.00,0.0572
470.00,0.0611
468.00,0.0650
466.00,0.0682
464.00,0.0716
462.00,0.0757
460.00,0.0795
458.00,0.0835
456.00,0.0875
454.00,0.0912
452.00,0.0947
450.00,0.0975
